Wavelength(A);Intensity_in_channels
-798.782104;0.000000
-793.263104;0.000000
-787.744104;0.000000
-782.225104;0.000000
-776.706104;0.000000
-771.187104;0.000000
-765.668104;0.000000
-760.149104;0.000000
-754.630104;0.000000
-749.111104;0.000000
-743.592104;0.000000
-738.073104;0.000000
-732.554104;0.000000
-727.035104;0.000000
-721.516104;0.000000
-715.997104;0.000000
-710.478104;0.000000
-704.959104;0.000000
-699.440104;0.000000
-693.921104;0.000000
-688.402104;0.000000
-682.883104;0.000000
-677.364104;0.000000
-671.845104;0.000000
-666.326104;0.000000
-660.807104;0.000000
-655.288104;0.000000
-649.769104;0.000000
-644.250104;0.000000
-638.731104;0.000000
-633.212104;0.000000
-627.693104;0.000000
-622.174104;0.000000
-616.655104;0.000000
-611.136104;0.000000
-605.617104;0.000000
-600.098104;0.000000
-594.579104;0.000000
-589.060104;0.000000
-583.541104;0.000000
-578.022104;0.000000
-572.503104;0.000000
-566.984104;0.000000
-561.465104;0.000000
-555.946104;0.000000
-550.427104;0.000000
-544.908104;0.000000
-539.389104;0.000000
-533.870104;0.000000
-528.351104;0.000000
-522.832104;0.000000
-517.313104;0.000000
-511.794104;0.000000
-506.275104;0.000000
-500.756104;0.000000
-495.237104;0.000000
-489.718104;0.000000
-484.199104;0.000000
-478.680104;0.000000
-473.161104;0.000000
-467.642104;0.000000
-462.123104;0.000000
-456.604104;0.000000
-451.085104;0.000000
-445.566104;0.000000
-440.047104;0.000000
-434.528104;0.000000
-429.009104;0.000000
-423.490104;0.000000
-417.971104;0.000000
-412.452104;0.000000
-406.933104;0.000000
-401.414104;0.000000
-395.895104;0.000000
-390.376104;0.000000
-384.857104;0.000000
-379.338104;0.000000
-373.819104;0.000000
-368.300104;0.000000
-362.781104;0.000000
-357.262104;0.000000
-351.743104;0.000000
-346.224104;0.000000
-340.705104;0.000000
-335.186104;0.000000
-329.667104;0.000000
-324.148104;0.000000
-318.629104;0.000000
-313.110104;0.000000
-307.591104;0.000000
-302.072104;0.000000
-296.553104;0.000000
-291.034104;0.000000
-285.515104;0.000000
-279.996104;0.000000
-274.477104;0.000000
-268.958104;0.000000
-263.439104;0.000000
-257.920104;0.000000
-252.401104;0.000000
-246.882104;0.000000
-241.363104;0.000000
-235.844104;0.000000
-230.325104;0.000000
-224.806104;0.000000
-219.287104;0.000000
-213.768104;0.000000
-208.249104;0.000000
-202.730104;0.000000
-197.211104;0.000000
-191.692104;0.000000
-186.173104;0.000000
-180.654104;0.000000
-175.135104;0.000000
-169.616104;0.000000
-164.097104;0.000000
-158.578104;0.000000
-153.059104;0.000000
-147.540104;0.000000
-142.021104;0.000000
-136.502104;0.000000
-130.983104;0.000000
-125.464104;0.000000
-119.945104;0.000000
-114.426104;0.000000
-108.907104;0.000000
-103.388104;0.000000
-97.869104;0.000000
-92.350104;2.000000
-86.831104;5.000000
-81.312104;6.000000
-75.793104;10.000000
-70.274104;16.000000
-64.755104;20.000000
-59.236104;21.000000
-53.717104;26.000000
-48.198104;36.000000
-42.679104;53.000000
-37.160104;85.000000
-31.641104;178.000000
-26.122104;407.000000
-20.603104;795.000000
-15.084104;1283.000000
-9.565104;1685.000000
-4.046104;1909.000000
1.472896;1966.000000
6.991896;1851.000000
12.510896;1534.000000
18.029896;1023.000000
23.548896;518.000000
29.067896;203.000000
34.586896;93.000000
40.105896;55.000000
45.624896;37.000000
51.143896;28.000000
56.662896;23.000000
62.181896;21.000000
67.700896;19.000000
73.219896;15.000000
78.738896;9.000000
84.257896;7.000000
89.776896;4.000000
95.295896;1.000000
100.814896;0.000000
106.333896;0.000000
111.852896;0.000000
117.371896;0.000000
122.890896;0.000000
128.409896;0.000000
133.928896;0.000000
139.447896;0.000000
144.966896;0.000000
150.485896;0.000000
156.004896;0.000000
161.523896;0.000000
167.042896;0.000000
172.561896;0.000000
178.080896;0.000000
183.599896;0.000000
189.118896;0.000000
194.637896;0.000000
200.156896;0.000000
205.675896;0.000000
211.194896;0.000000
216.713896;0.000000
222.232896;0.000000
227.751896;0.000000
233.270896;0.000000
238.789896;0.000000
244.308896;0.000000
249.827896;0.000000
255.346896;0.000000
260.865896;0.000000
266.384896;0.000000
271.903896;0.000000
277.422896;0.000000
282.941896;0.000000
288.460896;0.000000
293.979896;0.000000
299.498896;0.000000
305.017896;0.000000
310.536896;0.000000
316.055896;0.000000
321.574896;0.000000
327.093896;0.000000
332.612896;0.000000
338.131896;0.000000
343.650896;0.000000
349.169896;0.000000
354.688896;0.000000
360.207896;0.000000
365.726896;0.000000
371.245896;0.000000
376.764896;0.000000
382.283896;0.000000
387.802896;0.000000
393.321896;0.000000
398.840896;0.000000
404.359896;0.000000
409.878896;0.000000
415.397896;0.000000
420.916896;0.000000
426.435896;0.000000
431.954896;0.000000
437.473896;0.000000
442.992896;0.000000
448.511896;0.000000
454.030896;0.000000
459.549896;0.000000
465.068896;0.000000
470.587896;0.000000
476.106896;0.000000
481.625896;0.000000
487.144896;0.000000
492.663896;0.000000
498.182896;0.000000
503.701896;0.000000
509.220896;0.000000
514.739896;0.000000
520.258896;0.000000
525.777896;0.000000
531.296896;0.000000
536.815896;0.000000
542.334896;0.000000
547.853896;0.000000
553.372896;0.000000
558.891896;0.000000
564.410896;0.000000
569.929896;0.000000
575.448896;0.000000
580.967896;0.000000
586.486896;0.000000
592.005896;0.000000
597.524896;0.000000
603.043896;0.000000
608.562896;0.000000
614.081896;0.000000
619.600896;0.000000
625.119896;0.000000
630.638896;0.000000
636.157896;0.000000
641.676896;0.000000
647.195896;0.000000
652.714896;0.000000
658.233896;0.000000
663.752896;0.000000
669.271896;0.000000
674.790896;0.000000
680.309896;0.000000
685.828896;0.000000
691.347896;0.000000
696.866896;0.000000
702.385896;0.000000
707.904896;0.000000
713.423896;0.000000
718.942896;0.000000
724.461896;0.000000
729.980896;0.000000
735.499896;0.000000
741.018896;0.000000
746.537896;0.000000
752.056896;0.000000
757.575896;0.000000
763.094896;0.000000
768.613896;0.000000
774.132896;0.000000
779.651896;0.000000
785.170896;0.000000
790.689896;0.000000
796.208896;0.000000
801.727896;0.000000
807.246896;0.000000
812.765896;0.000000
818.284896;0.000000
823.803896;0.000000
829.322896;0.000000
834.841896;0.000000
840.360896;0.000000
845.879896;0.000000
851.398896;0.000000
856.917896;0.000000
862.436896;0.000000
867.955896;0.000000
873.474896;0.000000
878.993896;0.000000
884.512896;0.000000
890.031896;0.000000
895.550896;0.000000
901.069896;0.000000
906.588896;0.000000
912.107896;0.000000
917.626896;0.000000
923.145896;0.000000
928.664896;0.000000
934.183896;0.000000
939.702896;0.000000
945.221896;0.000000
950.740896;0.000000
956.259896;0.000000
961.778896;0.000000
967.297896;0.000000
972.816896;0.000000
978.335896;0.000000
983.854896;0.000000
989.373896;0.000000
994.892896;0.000000
1000.411896;0.000000
1005.930896;0.000000
1011.449896;0.000000
1016.968896;0.000000
1022.487896;0.000000
1028.006896;0.000000
1033.525896;0.000000
1039.044896;0.000000
1044.563896;0.000000
1050.082896;0.000000
1055.601896;0.000000
1061.120896;0.000000
1066.639896;0.000000
1072.158896;0.000000
1077.677896;0.000000
1083.196896;0.000000
1088.715896;0.000000
1094.234896;0.000000
1099.753896;0.000000
1105.272896;0.000000
1110.791896;0.000000
1116.310896;0.000000
1121.829896;0.000000
1127.348896;0.000000
1132.867896;0.000000
1138.386896;0.000000
1143.905896;0.000000
1149.424896;0.000000
1154.943896;0.000000
1160.462896;0.000000
1165.981896;0.000000
1171.500896;0.000000
1177.019896;0.000000
1182.538896;0.000000
1188.057896;0.000000
1193.576896;0.000000
1199.095896;0.000000
1204.614896;0.000000
1210.133896;0.000000
1215.652896;0.000000
1221.171896;0.000000
1226.690896;0.000000
1232.209896;0.000000
1237.728896;0.000000
1243.247896;0.000000
1248.766896;0.000000
1254.285896;0.000000
1259.804896;0.000000
1265.323896;0.000000
1270.842896;0.000000
1276.361896;0.000000
1281.880896;0.000000
1287.399896;0.000000
1292.918896;0.000000
1298.437896;0.000000
1303.956896;0.000000
1309.475896;0.000000
1314.994896;0.000000
1320.513896;0.000000
1326.032896;0.000000
1331.551896;0.000000
1337.070896;0.000000
1342.589896;0.000000
1348.108896;0.000000
1353.627896;0.000000
1359.146896;0.000000
1364.665896;0.000000
1370.184896;0.000000
1375.703896;0.000000
1381.222896;0.000000
1386.741896;0.000000
1392.260896;0.000000
1397.779896;0.000000
1403.298896;0.000000
1408.817896;0.000000
1414.336896;0.000000
1419.855896;0.000000
1425.374896;0.000000
1430.893896;0.000000
1436.412896;0.000000
1441.931896;0.000000
1447.450896;0.000000
1452.969896;0.000000
1458.488896;0.000000
1464.007896;0.000000
1469.526896;0.000000
1475.045896;0.000000
1480.564896;0.000000
1486.083896;0.000000
1491.602896;0.000000
1497.121896;0.000000
1502.640896;0.000000
1508.159896;0.000000
1513.678896;0.000000
1519.197896;0.000000
1524.716896;0.000000
1530.235896;0.000000
1535.754896;0.000000
1541.273896;0.000000
1546.792896;0.000000
1552.311896;0.000000
1557.830896;0.000000
1563.349896;0.000000
1568.868896;0.000000
1574.387896;0.000000
1579.906896;0.000000
1585.425896;0.000000
1590.944896;0.000000
1596.463896;0.000000
1601.982896;0.000000
1607.501896;0.000000
1613.020896;0.000000
1618.539896;0.000000
1624.058896;0.000000
1629.577896;0.000000
1635.096896;0.000000
1640.615896;0.000000
1646.134896;0.000000
1651.653896;0.000000
1657.172896;0.000000
1662.691896;0.000000
1668.210896;0.000000
1673.729896;0.000000
1679.248896;0.000000
1684.767896;0.000000
1690.286896;0.000000
1695.805896;0.000000
1701.324896;0.000000
1706.843896;0.000000
1712.362896;0.000000
1717.881896;0.000000
1723.400896;0.000000
1728.919896;0.000000
1734.438896;0.000000
1739.957896;0.000000
1745.476896;0.000000
1750.995896;0.000000
1756.514896;0.000000
1762.033896;0.000000
1767.552896;0.000000
1773.071896;0.000000
1778.590896;0.000000
1784.109896;0.000000
1789.628896;0.000000
1795.147896;0.000000
1800.666896;0.000000
1806.185896;0.000000
1811.704896;0.000000
1817.223896;0.000000
1822.742896;0.000000
1828.261896;0.000000
1833.780896;0.000000
1839.299896;0.000000
1844.818896;0.000000
1850.337896;0.000000
1855.856896;0.000000
1861.375896;0.000000
1866.894896;0.000000
1872.413896;0.000000
1877.932896;0.000000
1883.451896;0.000000
1888.970896;0.000000
1894.489896;0.000000
1900.008896;0.000000
1905.527896;0.000000
1911.046896;0.000000
1916.565896;0.000000
1922.084896;0.000000
1927.603896;0.000000
1933.122896;0.000000
1938.641896;0.000000
1944.160896;0.000000
1949.679896;0.000000
1955.198896;0.000000
1960.717896;0.000000
1966.236896;0.000000
1971.755896;0.000000
1977.274896;0.000000
1982.793896;0.000000
1988.312896;0.000000
1993.831896;0.000000
1999.350896;0.000000
2004.869896;0.000000
2010.388896;0.000000
2015.907896;0.000000
2021.426896;0.000000
2026.945896;0.000000
2032.464896;0.000000
2037.983896;0.000000
2043.502896;0.000000
2049.021896;0.000000
2054.540896;0.000000
2060.059896;0.000000
2065.578896;0.000000
2071.097896;0.000000
2076.616896;0.000000
2082.135896;0.000000
2087.654896;0.000000
2093.173896;0.000000
2098.692896;0.000000
2104.211896;0.000000
2109.730896;0.000000
2115.249896;0.000000
2120.768896;0.000000
2126.287896;0.000000
2131.806896;0.000000
2137.325896;0.000000
2142.844896;0.000000
2148.363896;0.000000
2153.882896;0.000000
2159.401896;0.000000
2164.920896;0.000000
2170.439896;0.000000
2175.958896;0.000000
2181.477896;0.000000
2186.996896;0.000000
2192.515896;0.000000
2198.034896;0.000000
2203.553896;0.000000
2209.072896;0.000000
2214.591896;0.000000
2220.110896;0.000000
2225.629896;0.000000
2231.148896;0.000000
2236.667896;0.000000
2242.186896;0.000000
2247.705896;0.000000
2253.224896;0.000000
2258.743896;0.000000
2264.262896;0.000000
2269.781896;0.000000
2275.300896;0.000000
2280.819896;0.000000
2286.338896;0.000000
2291.857896;0.000000
2297.376896;0.000000
2302.895896;0.000000
2308.414896;0.000000
2313.933896;0.000000
2319.452896;0.000000
2324.971896;0.000000
2330.490896;0.000000
2336.009896;0.000000
2341.528896;0.000000
2347.047896;0.000000
2352.566896;0.000000
2358.085896;0.000000
2363.604896;0.000000
2369.123896;0.000000
2374.642896;0.000000
2380.161896;0.000000
2385.680896;0.000000
2391.199896;0.000000
2396.718896;0.000000
2402.237896;0.000000
2407.756896;0.000000
2413.275896;0.000000
2418.794896;0.000000
2424.313896;0.000000
2429.832896;0.000000
2435.351896;0.000000
2440.870896;0.000000
2446.389896;0.000000
2451.908896;0.000000
2457.427896;0.000000
2462.946896;0.000000
2468.465896;0.000000
2473.984896;0.000000
2479.503896;0.000000
2485.022896;0.000000
2490.541896;0.000000
2496.060896;0.000000
2501.579896;0.000000
2507.098896;0.000000
2512.617896;0.000000
2518.136896;0.000000
2523.655896;0.000000
2529.174896;0.000000
2534.693896;0.000000
2540.212896;0.000000
2545.731896;0.000000
2551.250896;0.000000
2556.769896;0.000000
2562.288896;0.000000
2567.807896;0.000000
2573.326896;0.000000
2578.845896;0.000000
2584.364896;0.000000
2589.883896;0.000000
2595.402896;0.000000
2600.921896;0.000000
2606.440896;0.000000
2611.959896;0.000000
2617.478896;0.000000
2622.997896;0.000000
2628.516896;0.000000
2634.035896;0.000000
2639.554896;0.000000
2645.073896;0.000000
2650.592896;0.000000
2656.111896;0.000000
2661.630896;0.000000
2667.149896;0.000000
2672.668896;0.000000
2678.187896;0.000000
2683.706896;0.000000
2689.225896;0.000000
2694.744896;0.000000
2700.263896;0.000000
2705.782896;0.000000
2711.301896;0.000000
2716.820896;0.000000
2722.339896;0.000000
2727.858896;0.000000
2733.377896;0.000000
2738.896896;0.000000
2744.415896;0.000000
2749.934896;0.000000
2755.453896;0.000000
2760.972896;0.000000
2766.491896;0.000000
2772.010896;0.000000
2777.529896;0.000000
2783.048896;0.000000
2788.567896;0.000000
2794.086896;0.000000
2799.605896;0.000000
2805.124896;0.000000
2810.643896;0.000000
2816.162896;0.000000
2821.681896;0.000000
2827.200896;0.000000
2832.719896;0.000000
2838.238896;0.000000
2843.757896;0.000000
2849.276896;0.000000
2854.795896;0.000000
2860.314896;0.000000
2865.833896;0.000000
2871.352896;0.000000
2876.871896;0.000000
2882.390896;0.000000
2887.909896;0.000000
2893.428896;0.000000
2898.947896;0.000000
2904.466896;0.000000
2909.985896;0.000000
2915.504896;0.000000
2921.023896;0.000000
2926.542896;0.000000
2932.061896;0.000000
2937.580896;0.000000
2943.099896;0.000000
2948.618896;0.000000
2954.137896;0.000000
2959.656896;0.000000
2965.175896;0.000000
2970.694896;0.000000
2976.213896;0.000000
2981.732896;0.000000
2987.251896;0.000000
2992.770896;0.000000
2998.289896;0.000000
3003.808896;0.000000
3009.327896;0.000000
3014.846896;0.000000
3020.365896;0.000000
3025.884896;0.000000
3031.403896;0.000000
3036.922896;0.000000
3042.441896;0.000000
3047.960896;0.000000
3053.479896;0.000000
3058.998896;0.000000
3064.517896;0.000000
3070.036896;0.000000
3075.555896;0.000000
3081.074896;0.000000
3086.593896;0.000000
3092.112896;0.000000
3097.631896;0.000000
3103.150896;0.000000
3108.669896;0.000000
3114.188896;0.000000
3119.707896;0.000000
3125.226896;0.000000
3130.745896;0.000000
3136.264896;0.000000
3141.783896;0.000000
3147.302896;0.000000
3152.821896;0.000000
3158.340896;0.000000
3163.859896;0.000000
3169.378896;0.000000
3174.897896;0.000000
3180.416896;0.000000
3185.935896;0.000000
3191.454896;0.000000
3196.973896;0.000000
3202.492896;0.000000
3208.011896;0.000000
3213.530896;0.000000
3219.049896;0.000000
3224.568896;0.000000
3230.087896;0.000000
3235.606896;0.000000
3241.125896;0.000000
3246.644896;0.000000
3252.163896;0.000000
3257.682896;0.000000
3263.201896;0.000000
3268.720896;0.000000
3274.239896;0.000000
3279.758896;0.000000
3285.277896;0.000000
3290.796896;0.000000
3296.315896;0.000000
3301.834896;0.000000
3307.353896;0.000000
3312.872896;0.000000
3318.391896;0.000000
3323.910896;0.000000
3329.429896;0.000000
3334.948896;0.000000
3340.467896;0.000000
3345.986896;0.000000
3351.505896;0.000000
3357.024896;0.000000
3362.543896;0.000000
3368.062896;0.000000
3373.581896;0.000000
3379.100896;0.000000
3384.619896;0.000000
3390.138896;0.000000
3395.657896;0.000000
3401.176896;0.000000
3406.695896;0.000000
3412.214896;0.000000
3417.733896;0.000000
3423.252896;0.000000
3428.771896;0.000000
3434.290896;0.000000
3439.809896;0.000000
3445.328896;0.000000
3450.847896;0.000000
3456.366896;0.000000
3461.885896;0.000000
3467.404896;0.000000
3472.923896;0.000000
3478.442896;0.000000
3483.961896;0.000000
3489.480896;0.000000
3494.999896;0.000000
3500.518896;0.000000
3506.037896;0.000000
3511.556896;0.000000
3517.075896;0.000000
3522.594896;0.000000
3528.113896;0.000000
3533.632896;0.000000
3539.151896;0.000000
3544.670896;0.000000
3550.189896;0.000000
3555.708896;0.000000
3561.227896;0.000000
3566.746896;0.000000
3572.265896;0.000000
3577.784896;0.000000
3583.303896;0.000000
3588.822896;0.000000
3594.341896;0.000000
3599.860896;0.000000
3605.379896;0.000000
3610.898896;0.000000
3616.417896;0.000000
3621.936896;0.000000
3627.455896;0.000000
3632.974896;0.000000
3638.493896;0.000000
3644.012896;0.000000
3649.531896;0.000000
3655.050896;0.000000
3660.569896;0.000000
3666.088896;0.000000
3671.607896;0.000000
3677.126896;0.000000
3682.645896;0.000000
3688.164896;0.000000
3693.683896;0.000000
3699.202896;0.000000
3704.721896;0.000000
3710.240896;0.000000
3715.759896;0.000000
3721.278896;0.000000
3726.797896;0.000000
3732.316896;0.000000
3737.835896;0.000000
3743.354896;0.000000
3748.873896;0.000000
3754.392896;0.000000
3759.911896;0.000000
3765.430896;0.000000
3770.949896;0.000000
3776.468896;0.000000
3781.987896;0.000000
3787.506896;0.000000
3793.025896;0.000000
3798.544896;0.000000
3804.063896;0.000000
3809.582896;0.000000
3815.101896;0.000000
3820.620896;0.000000
3826.139896;0.000000
3831.658896;0.000000
3837.177896;0.000000
3842.696896;0.000000
3848.215896;0.000000
3853.734896;0.000000
3859.253896;0.000000
3864.772896;0.000000
3870.291896;0.000000
3875.810896;0.000000
3881.329896;0.000000
3886.848896;0.000000
3892.367896;0.000000
3897.886896;0.000000
3903.405896;0.000000
3908.924896;0.000000
3914.443896;0.000000
3919.962896;0.000000
3925.481896;0.000000
3931.000896;0.000000
3936.519896;0.000000
3942.038896;0.000000
3947.557896;0.000000
3953.076896;0.000000
3958.595896;0.000000
3964.114896;0.000000
3969.633896;0.000000
3975.152896;0.000000
3980.671896;0.000000
3986.190896;0.000000
3991.709896;0.000000
3997.228896;0.000000
4002.747896;0.000000
4008.266896;4.000000
4013.785896;4.000000
4019.304896;6.000000
4024.823896;6.000000
4030.342896;6.000000
4035.861896;6.000000
4041.380896;6.000000
4046.899896;7.000000
4052.418896;7.000000
4057.937896;7.000000
4063.456896;7.000000
4068.975896;6.000000
4074.494896;6.000000
4080.013896;6.000000
4085.532896;7.000000
4091.051896;7.000000
4096.570896;6.000000
4102.089896;7.000000
4107.608896;8.000000
4113.127896;8.000000
4118.646896;8.000000
4124.165896;9.000000
4129.684896;10.000000
4135.203896;13.000000
4140.722896;14.000000
4146.241896;16.000000
4151.760896;20.000000
4157.279896;22.000000
4162.798896;29.000000
4168.317896;33.000000
4173.836896;39.000000
4179.355896;45.000000
4184.874896;53.000000
4190.393896;59.000000
4195.912896;69.000000
4201.431896;76.000000
4206.950896;84.000000
4212.469896;95.000000
4217.988896;102.000000
4223.507896;110.000000
4229.026896;118.000000
4234.545896;122.000000
4240.064896;126.000000
4245.583896;130.000000
4251.102896;135.000000
4256.621896;138.000000
4262.140896;141.000000
4267.659896;144.000000
4273.178896;146.000000
4278.697896;146.000000
4284.216896;147.000000
4289.735896;144.000000
4295.254896;144.000000
4300.773896;139.000000
4306.292896;134.000000
4311.811896;130.000000
4317.330896;125.000000
4322.849896;112.000000
4328.368896;104.000000
4333.887896;95.000000
4339.406896;90.000000
4344.925896;89.000000
4350.444896;96.000000
4355.963896;105.000000
4361.482896;123.000000
4367.001896;139.000000
4372.520896;154.000000
4378.039896;165.000000
4383.558896;176.000000
4389.077896;187.000000
4394.596896;190.000000
4400.115896;199.000000
4405.634896;205.000000
4411.153896;211.000000
4416.672896;215.000000
4422.191896;220.000000
4427.710896;224.000000
4433.229896;227.000000
4438.748896;233.000000
4444.267896;233.000000
4449.786896;236.000000
4455.305896;235.000000
4460.824896;237.000000
4466.343896;239.000000
4471.862896;244.000000
4477.381896;245.000000
4482.900896;249.000000
4488.419896;249.000000
4493.938896;253.000000
4499.457896;257.000000
4504.976896;258.000000
4510.495896;261.000000
4516.014896;262.000000
4521.533896;261.000000
4527.052896;260.000000
4532.571896;258.000000
4538.090896;262.000000
4543.609896;260.000000
4549.128896;260.000000
4554.647896;258.000000
4560.166896;261.000000
4565.685896;262.000000
4571.204896;261.000000
4576.723896;267.000000
4582.242896;268.000000
4587.761896;269.000000
4593.280896;270.000000
4598.799896;272.000000
4604.318896;277.000000
4609.837896;276.000000
4615.356896;281.000000
4620.875896;279.000000
4626.394896;284.000000
4631.913896;287.000000
4637.432896;290.000000
4642.951896;294.000000
4648.470896;295.000000
4653.989896;295.000000
4659.508896;301.000000
4665.027896;302.000000
4670.546896;307.000000
4676.065896;313.000000
4681.584896;319.000000
4687.103896;323.000000
4692.622896;327.000000
4698.141896;331.000000
4703.660896;335.000000
4709.179896;341.000000
4714.698896;348.000000
4720.217896;354.000000
4725.736896;362.000000
4731.255896;369.000000
4736.774896;377.000000
4742.293896;385.000000
4747.812896;390.000000
4753.331896;399.000000
4758.850896;404.000000
4764.369896;408.000000
4769.888896;413.000000
4775.407896;420.000000
4780.926896;426.000000
4786.445896;427.000000
4791.964896;434.000000
4797.483896;434.000000
4803.002896;440.000000
4808.521896;441.000000
4814.040896;438.000000
4819.559896;433.000000
4825.078896;426.000000
4830.597896;411.000000
4836.116896;395.000000
4841.635896;373.000000
4847.154896;347.000000
4852.673896;326.000000
4858.192896;316.000000
4863.711896;317.000000
4869.230896;329.000000
4874.749896;346.000000
4880.268896;373.000000
4885.787896;399.000000
4891.306896;422.000000
4896.825896;440.000000
4902.344896;453.000000
4907.863896;465.000000
4913.382896;477.000000
4918.901896;486.000000
4924.420896;492.000000
4929.939896;499.000000
4935.458896;506.000000
4940.977896;509.000000
4946.496896;513.000000
4952.015896;521.000000
4957.534896;527.000000
4963.053896;528.000000
4968.572896;533.000000
4974.091896;537.000000
4979.610896;537.000000
4985.129896;541.000000
4990.648896;544.000000
4996.167896;540.000000
5001.686896;540.000000
5007.205896;538.000000
5012.724896;537.000000
5018.243896;538.000000
5023.762896;542.000000
5029.281896;540.000000
5034.800896;544.000000
5040.319896;544.000000
5045.838896;551.000000
5051.357896;554.000000
5056.876896;554.000000
5062.395896;557.000000
5067.914896;564.000000
5073.433896;563.000000
5078.952896;565.000000
5084.471896;567.000000
5089.990896;571.000000
5095.509896;574.000000
5101.028896;577.000000
5106.547896;577.000000
5112.066896;576.000000
5117.585896;581.000000
5123.104896;580.000000
5128.623896;577.000000
5134.142896;574.000000
5139.661896;577.000000
5145.180896;574.000000
5150.699896;573.000000
5156.218896;571.000000
5161.737896;569.000000
5167.256896;569.000000
5172.775896;572.000000
5178.294896;573.000000
5183.813896;571.000000
5189.332896;574.000000
5194.851896;573.000000
5200.370896;580.000000
5205.889896;579.000000
5211.408896;578.000000
5216.927896;575.000000
5222.446896;578.000000
5227.965896;577.000000
5233.484896;575.000000
5239.003896;571.000000
5244.522896;572.000000
5250.041896;565.000000
5255.560896;560.000000
5261.079896;554.000000
5266.598896;549.000000
5272.117896;543.000000
5277.636896;546.000000
5283.155896;539.000000
5288.674896;540.000000
5294.193896;538.000000
5299.712896;536.000000
5305.231896;531.000000
5310.750896;525.000000
5316.269896;522.000000
5321.788896;522.000000
5327.307896;523.000000
5332.826896;520.000000
5338.345896;523.000000
5343.864896;523.000000
5349.383896;519.000000
5354.902896;516.000000
5360.421896;516.000000
5365.940896;515.000000
5371.459896;508.000000
5376.978896;503.000000
5382.497896;498.000000
5388.016896;495.000000
5393.535896;488.000000
5399.054896;487.000000
5404.573896;483.000000
5410.092896;480.000000
5415.611896;478.000000
5421.130896;474.000000
5426.649896;471.000000
5432.168896;469.000000
5437.687896;467.000000
5443.206896;466.000000
5448.725896;465.000000
5454.244896;463.000000
5459.763896;464.000000
5465.282896;462.000000
5470.801896;461.000000
5476.320896;460.000000
5481.839896;458.000000
5487.358896;455.000000
5492.877896;455.000000
5498.396896;454.000000
5503.915896;454.000000
5509.434896;451.000000
5514.953896;447.000000
5520.472896;443.000000
5525.991896;444.000000
5531.510896;436.000000
5537.029896;432.000000
5542.548896;427.000000
5548.067896;426.000000
5553.586896;421.000000
5559.105896;414.000000
5564.624896;410.000000
5570.143896;403.000000
5575.662896;401.000000
5581.181896;400.000000
5586.700896;398.000000
5592.219896;393.000000
5597.738896;388.000000
5603.257896;387.000000
5608.776896;381.000000
5614.295896;375.000000
5619.814896;374.000000
5625.333896;368.000000
5630.852896;365.000000
5636.371896;359.000000
5641.890896;352.000000
5647.409896;354.000000
5652.928896;346.000000
5658.447896;339.000000
5663.966896;336.000000
5669.485896;331.000000
5675.004896;328.000000
5680.523896;322.000000
5686.042896;317.000000
5691.561896;314.000000
5697.080896;314.000000
5702.599896;308.000000
5708.118896;308.000000
5713.637896;303.000000
5719.156896;303.000000
5724.675896;303.000000
5730.194896;302.000000
5735.713896;299.000000
5741.232896;299.000000
5746.751896;298.000000
5752.270896;297.000000
5757.789896;298.000000
5763.308896;301.000000
5768.827896;300.000000
5774.346896;302.000000
5779.865896;304.000000
5785.384896;304.000000
5790.903896;303.000000
5796.422896;303.000000
5801.941896;307.000000
5807.460896;305.000000
5812.979896;311.000000
5818.498896;310.000000
5824.017896;311.000000
5829.536896;310.000000
5835.055896;310.000000
5840.574896;308.000000
5846.093896;306.000000
5851.612896;308.000000
5857.131896;304.000000
5862.650896;304.000000
5868.169896;299.000000
5873.688896;296.000000
5879.207896;293.000000
5884.726896;289.000000
5890.245896;288.000000
5895.764896;284.000000
5901.283896;281.000000
5906.802896;279.000000
5912.321896;281.000000
5917.840896;274.000000
5923.359896;272.000000
5928.878896;268.000000
5934.397896;263.000000
5939.916896;259.000000
5945.435896;254.000000
5950.954896;252.000000
5956.473896;249.000000
5961.992896;246.000000
5967.511896;241.000000
5973.030896;236.000000
5978.549896;233.000000
5984.068896;231.000000
5989.587896;224.000000
5995.106896;221.000000
6000.625896;215.000000
6006.144896;213.000000
6011.663896;208.000000
6017.182896;201.000000
6022.701896;196.000000
6028.220896;194.000000
6033.739896;191.000000
6039.258896;186.000000
6044.777896;182.000000
6050.296896;176.000000
6055.815896;171.000000
6061.334896;170.000000
6066.853896;165.000000
6072.372896;163.000000
6077.891896;157.000000
6083.410896;156.000000
6088.929896;152.000000
6094.448896;147.000000
6099.967896;141.000000
6105.486896;137.000000
6111.005896;138.000000
6116.524896;133.000000
6122.043896;130.000000
6127.562896;129.000000
6133.081896;126.000000
6138.600896;124.000000
6144.119896;121.000000
6149.638896;117.000000
6155.157896;117.000000
6160.676896;115.000000
6166.195896;116.000000
6171.714896;111.000000
6177.233896;107.000000
6182.752896;106.000000
6188.271896;107.000000
6193.790896;102.000000
6199.309896;99.000000
6204.828896;98.000000
6210.347896;94.000000
6215.866896;92.000000
6221.385896;91.000000
6226.904896;88.000000
6232.423896;88.000000
6237.942896;87.000000
6243.461896;86.000000
6248.980896;83.000000
6254.499896;80.000000
6260.018896;80.000000
6265.537896;79.000000
6271.056896;79.000000
6276.575896;74.000000
6282.094896;73.000000
6287.613896;74.000000
6293.132896;71.000000
6298.651896;71.000000
6304.170896;65.000000
6309.689896;66.000000
6315.208896;66.000000
6320.727896;65.000000
6326.246896;64.000000
6331.765896;63.000000
6337.284896;61.000000
6342.803896;60.000000
6348.322896;59.000000
6353.841896;58.000000
6359.360896;57.000000
6364.879896;56.000000
6370.398896;55.000000
6375.917896;52.000000
6381.436896;54.000000
6386.955896;53.000000
6392.474896;53.000000
6397.993896;52.000000
6403.512896;49.000000
6409.031896;48.000000
6414.550896;48.000000
6420.069896;47.000000
6425.588896;47.000000
6431.107896;47.000000
6436.626896;45.000000
6442.145896;45.000000
6447.664896;43.000000
6453.183896;41.000000
6458.702896;40.000000
6464.221896;41.000000
6469.740896;37.000000
6475.259896;35.000000
6480.778896;35.000000
6486.297896;35.000000
6491.816896;36.000000
6497.335896;35.000000
6502.854896;32.000000
6508.373896;32.000000
6513.892896;33.000000
6519.411896;31.000000
6524.930896;27.000000
6530.449896;27.000000
6535.968896;28.000000
6541.487896;27.000000
6547.006896;26.000000
6552.525896;25.000000
6558.044896;25.000000
6563.563896;23.000000
6569.082896;24.000000
6574.601896;26.000000
6580.120896;25.000000
6585.639896;24.000000
6591.158896;25.000000
6596.677896;26.000000
6602.196896;25.000000
6607.715896;26.000000
6613.234896;25.000000
6618.753896;25.000000
6624.272896;24.000000
6629.791896;24.000000
6635.310896;24.000000
6640.829896;23.000000
6646.348896;21.000000
6651.867896;22.000000
6657.386896;21.000000
6662.905896;21.000000
6668.424896;19.000000
6673.943896;19.000000
6679.462896;19.000000
6684.981896;20.000000
6690.500896;20.000000
6696.019896;19.000000
6701.538896;19.000000
6707.057896;19.000000
6712.576896;18.000000
6718.095896;17.000000
6723.614896;17.000000
6729.133896;16.000000
6734.652896;17.000000
6740.171896;15.000000
6745.690896;15.000000
6751.209896;13.000000
6756.728896;12.000000
6762.247896;11.000000
6767.766896;11.000000
6773.285896;11.000000
6778.804896;11.000000
6784.323896;11.000000
6789.842896;10.000000
6795.361896;10.000000
6800.880896;10.000000
6806.399896;10.000000
6811.918896;9.000000
6817.437896;9.000000
6822.956896;9.000000
6828.475896;8.000000
6833.994896;8.000000
6839.513896;8.000000
6845.032896;7.000000
6850.551896;5.000000
6856.070896;4.000000
6861.589896;3.000000
6867.108896;2.000000
6872.627896;0.000000
6878.146896;0.000000
6883.665896;0.000000
6889.184896;0.000000
6894.703896;0.000000
6900.222896;0.000000
6905.741896;0.000000
6911.260896;0.000000
6916.779896;0.000000
6922.298896;0.000000
6927.817896;0.000000
6933.336896;0.000000
6938.855896;0.000000
6944.374896;0.000000
6949.893896;0.000000
6955.412896;0.000000
6960.931896;0.000000
6966.450896;0.000000
6971.969896;0.000000
6977.488896;0.000000
6983.007896;0.000000
6988.526896;0.000000
6994.045896;0.000000
6999.564896;0.000000
7005.083896;0.000000
7010.602896;0.000000
7016.121896;0.000000
7021.640896;0.000000
7027.159896;0.000000
7032.678896;0.000000
7038.197896;0.000000
7043.716896;0.000000
7049.235896;0.000000
7054.754896;0.000000
7060.273896;0.000000
7065.792896;0.000000
7071.311896;0.000000
7076.830896;0.000000
7082.349896;0.000000
7087.868896;0.000000
7093.387896;0.000000
7098.906896;0.000000
7104.425896;0.000000
7109.944896;0.000000
7115.463896;0.000000
7120.982896;0.000000
7126.501896;0.000000
7132.020896;0.000000
7137.539896;0.000000
7143.058896;0.000000
7148.577896;0.000000
7154.096896;0.000000
7159.615896;0.000000
7165.134896;0.000000
7170.653896;0.000000
7176.172896;0.000000
7181.691896;0.000000
7187.210896;0.000000
7192.729896;0.000000
7198.248896;0.000000
7203.767896;0.000000
7209.286896;0.000000
7214.805896;0.000000
7220.324896;0.000000
7225.843896;0.000000
7231.362896;0.000000
7236.881896;0.000000
7242.400896;0.000000
7247.919896;0.000000
7253.438896;0.000000
7258.957896;0.000000
7264.476896;0.000000
7269.995896;0.000000
7275.514896;0.000000
7281.033896;0.000000
7286.552896;0.000000
7292.071896;0.000000
7297.590896;0.000000
7303.109896;0.000000
7308.628896;0.000000
7314.147896;0.000000
7319.666896;0.000000
7325.185896;0.000000
7330.704896;0.000000
7336.223896;0.000000
7341.742896;0.000000
7347.261896;0.000000
7352.780896;0.000000
7358.299896;0.000000
7363.818896;0.000000
7369.337896;0.000000
7374.856896;0.000000
7380.375896;0.000000
7385.894896;0.000000
7391.413896;0.000000
7396.932896;0.000000
7402.451896;0.000000
7407.970896;0.000000
7413.489896;0.000000
7419.008896;0.000000
7424.527896;0.000000
7430.046896;0.000000
7435.565896;0.000000
7441.084896;0.000000
7446.603896;0.000000
7452.122896;0.000000
7457.641896;0.000000
7463.160896;0.000000
7468.679896;0.000000
7474.198896;0.000000
7479.717896;0.000000
7485.236896;0.000000
